Ochi-Hubble Spectrum
Frequency
SD
1
Spectrum
1000
  4.3276767E-04  0.0000000E+00
  1.0243036E-03  0.0000000E+00
  2.2537673E-03  0.0000000E+00
  2.3989191E-03  0.0000000E+00
  3.3392366E-03  0.0000000E+00
  4.2459969E-03  0.0000000E+00
  5.5506299E-03  0.0000000E+00
  6.1812396E-03  0.0000000E+00
  6.7985612E-03  0.0000000E+00
  7.9577435E-03  0.0000000E+00
  8.6905165E-03  0.0000000E+00
  9.5488941E-03  0.0000000E+00
  9.6662277E-03  0.0000000E+00
  1.0553276E-02  0.0000000E+00
  1.1905692E-02  0.0000000E+00
  1.2724791E-02  0.0000000E+00
  1.3488436E-02  0.0000000E+00
  1.3591318E-02  0.0000000E+00
  1.5052112E-02  0.0000000E+00
  1.5906453E-02  0.0000000E+00
  1.6558381E-02  0.0000000E+00
  1.7506111E-02  0.0000000E+00
  1.7585831E-02  0.0000000E+00
  1.9080386E-02  0.0000000E+00
  1.9374678E-02  0.0000000E+00
  2.0321878E-02  0.0000000E+00
  2.1006214E-02  0.0000000E+00
  2.1931319E-02  0.0000000E+00
  2.3017803E-02  0.0000000E+00
  2.3833446E-02  0.0000000E+00
  2.4363052E-02  0.0000000E+00
  2.5411934E-02  0.0000000E+00
  2.6256893E-02  0.0000000E+00
  2.6831614E-02  0.0000000E+00
  2.7195856E-02  0.0000000E+00
  2.8525941E-02  0.0000000E+00
  2.9176455E-02  0.0000000E+00
  3.0130766E-02  0.0000000E+00
  3.0643176E-02  0.0000000E+00
  3.1117018E-02  0.0000000E+00
  3.2537457E-02  0.0000000E+00
  3.3084016E-02  0.0000000E+00
  3.3736084E-02  0.0000000E+00
  3.4838367E-02  0.0000000E+00
  3.5667844E-02  0.0000000E+00
  3.6460254E-02  0.0000000E+00
  3.7116308E-02  0.0000000E+00
  3.7800010E-02  0.0000000E+00
  3.8499340E-02  0.0000000E+00
  3.9545529E-02  0.0000000E+00
  4.0558919E-02  0.0000000E+00
  4.0791553E-02  0.0000000E+00
  4.1893706E-02  0.0000000E+00
  4.2944375E-02  0.0000000E+00
  4.3251812E-02  0.0000000E+00
  4.4557691E-02  0.0000000E+00
  4.5350265E-02  0.0000000E+00
  4.5828030E-02  0.0000000E+00
  4.6943966E-02  0.0000000E+00
  4.7709540E-02  0.0000000E+00
  4.8502464E-02  0.0000000E+00
  4.8692130E-02  0.0000000E+00
  4.9410962E-02  0.0000000E+00
  5.0730165E-02  2.6555240E-36
  5.1719952E-02  9.2300138E-34
  5.2420203E-02  4.1814241E-32
  5.3308804E-02  3.7146814E-30
  5.3774886E-02  3.3782677E-29
  5.4516774E-02  9.3711764E-28
  5.5450581E-02  4.5099283E-26
  5.5875294E-02  2.3636334E-25
  5.6718666E-02  5.2937391E-24
  5.7873819E-02  2.6165249E-22
  5.8883809E-02  5.8385328E-21
  5.9614185E-02  4.6969483E-20
  6.0173571E-02  2.1317701E-19
  6.0655795E-02  7.4308767E-19
  6.1773822E-02  1.1186289E-17
  6.2823929E-02  1.1528269E-16
  6.3125260E-02  2.1732962E-16
  6.4383365E-02  2.6219791E-15
  6.5242343E-02  1.2545356E-14
  6.5355599E-02  1.5304374E-14
  6.6680647E-02  1.3851695E-13
  6.7189790E-02  3.0510498E-13
  6.7975052E-02  9.7402978E-13
  6.9222219E-02  5.3929235E-12
  6.9680139E-02  9.7337034E-12
  7.0188142E-02  1.8327007E-11
  7.0931084E-02  4.4413990E-11
  7.2341524E-02  2.1101715E-10
  7.2534859E-02  2.5823865E-10
  7.3970661E-02  1.0670871E-09
  7.4718490E-02  2.1189663E-09
  7.4816428E-02  2.3122946E-09
  7.5928457E-02  5.9937175E-09
  7.6620050E-02  1.0472343E-08
  7.7900670E-02  2.7602177E-08
  7.8175835E-02  3.3645712E-08
  7.8985125E-02  5.9050848E-08
  7.9864942E-02  1.0543164E-07
  8.0824398E-02  1.9147851E-07
  8.1810489E-02  3.4109252E-07
  8.2257748E-02  4.3822317E-07
  8.3112545E-02  6.9440159E-07
  8.4026001E-02  1.1069988E-06
  8.4404200E-02  1.3329540E-06
  8.5917570E-02  2.6922887E-06
  8.6277686E-02  3.1539896E-06
  8.7114565E-02  4.4993699E-06
  8.8330977E-02  7.3206797E-06
  8.9061320E-02  9.6516769E-06
  8.9594930E-02  1.1728182E-05
  9.0663739E-02  1.7033411E-05
  9.1239057E-02  2.0635995E-05
  9.1841660E-02  2.5067078E-05
  9.2760757E-02  3.3318323E-05
  9.3607478E-02  4.2773692E-05
  9.4027027E-02  4.8208141E-05
  9.5029548E-02  6.3473766E-05
  9.6178532E-02  8.5483996E-05
  9.6627444E-02  9.5565178E-05
  9.7855009E-02  1.2793941E-04
  9.8300532E-02  1.4158469E-04
  9.9471837E-02  1.8280520E-04
  0.1001808      2.1182360E-04
  0.1008323      2.4141156E-04
  0.1012478      2.6181419E-04
  0.1021964      3.1312660E-04
  0.1027530      3.4643061E-04
  0.1039962      4.2987175E-04
  0.1049914      5.0614303E-04
  0.1057618      5.7124486E-04
  0.1061270      6.0400058E-04
  0.1067417      6.6195877E-04
  0.1080241      7.9443038E-04
  0.1088036      8.8274141E-04
  0.1098157      1.0062887E-03
  0.1100876      1.0411956E-03
  0.1112457      1.1980064E-03
  0.1121422      1.3283666E-03
  0.1128971      1.4441322E-03
  0.1137628      1.5834905E-03
  0.1144277      1.6951964E-03
  0.1153148      1.8503711E-03
  0.1160030      1.9754088E-03
  0.1167534      2.1162033E-03
  0.1177005      2.3001921E-03
  0.1185332      2.4674011E-03
  0.1193219      2.6301499E-03
  0.1197990      2.7305100E-03
  0.1203905      2.8568215E-03
  0.1216200      3.1253838E-03
  0.1217651      3.1575784E-03
  0.1227054      3.3683318E-03
  0.1236122      3.5747145E-03
  0.1249168      3.8758526E-03
  0.1255474      4.0227040E-03
  0.1261647      4.1669989E-03
  0.1273239      4.4386964E-03
  0.1280567      4.6104561E-03
  0.1289151      4.8111319E-03
  0.1290324      4.8384913E-03
  0.1299195      5.0445474E-03
  0.1312719      5.3550671E-03
  0.1320910      5.5402699E-03
  0.1328546      5.7105282E-03
  0.1329575      5.7332702E-03
  0.1344183      6.0504908E-03
  0.1352727      6.2305424E-03
  0.1359246      6.3648866E-03
  0.1368723      6.5550911E-03
  0.1369520      6.5707993E-03
  0.1384466      6.8564569E-03
  0.1387409      6.9106314E-03
  0.1396881      7.0800954E-03
  0.1403724      7.1977042E-03
  0.1412975      7.3499968E-03
  0.1423840      7.5186440E-03
  0.1431997      7.6377597E-03
  0.1437293      7.7115754E-03
  0.1447781      7.8494055E-03
  0.1456231      7.9522291E-03
  0.1461978      8.0179218E-03
  0.1465621      8.0577619E-03
  0.1478921      8.1913443E-03
  0.1485427      8.2498416E-03
  0.1494970      8.3275177E-03
  0.1500094      8.3652316E-03
  0.1504832      8.3976304E-03
  0.1519037      8.4805805E-03
  0.1524502      8.5068829E-03
  0.1531023      8.5342256E-03
  0.1542046      8.5705863E-03
  0.1550340      8.5899103E-03
  0.1558264      8.6020576E-03
  0.1564825      8.6075347E-03
  0.1571662      8.6089149E-03
  0.1578655      8.6058527E-03
  0.1589117      8.5930489E-03
  0.1599251      8.5715586E-03
  0.1601577      8.5654007E-03
  0.1612599      8.5302144E-03
  0.1623106      8.4877629E-03
  0.1626180      8.4737614E-03
  0.1639239      8.4066717E-03
  0.1647165      8.3602099E-03
  0.1651942      8.3302166E-03
  0.1663102      8.2546221E-03
  0.1670757      8.1985202E-03
  0.1678687      8.1370072E-03
  0.1680583      8.1218053E-03
  0.1687772      8.0625508E-03
  0.1700964      7.9475157E-03
  0.1710862      7.8563802E-03
  0.1717864      7.7896733E-03
  0.1726750      7.7026421E-03
  0.1731411      7.6560322E-03
  0.1738830      7.5806146E-03
  0.1748168      7.4838223E-03
  0.1752415      7.4392082E-03
  0.1760849      7.3497086E-03
  0.1772400      7.2256234E-03
  0.1782500      7.1162526E-03
  0.1789804      7.0369584E-03
  0.1795398      6.9762496E-03
  0.1800220      6.9240071E-03
  0.1811400      6.8035419E-03
  0.1821901      6.6917432E-03
  0.1824915      6.6599883E-03
  0.1837496      6.5294243E-03
  0.1846085      6.4425203E-03
  0.1847218      6.4312173E-03
  0.1860469      6.3020699E-03
  0.1865560      6.2541035E-03
  0.1873413      6.1821444E-03
  0.1885884      6.0734185E-03
  0.1890464      6.0353591E-03
  0.1895543      5.9943921E-03
  0.1902973      5.9369663E-03
  0.1917077      5.8366517E-03
  0.1919011      5.8238371E-03
  0.1933369      5.7361978E-03
  0.1940847      5.6960247E-03
  0.1941826      5.6910529E-03
  0.1952947      5.6393906E-03
  0.1959863      5.6118276E-03
  0.1972669      5.5703456E-03
  0.1975420      5.5630854E-03
  0.1983513      5.5451826E-03
  0.1992311      5.5316277E-03
  0.2001906      5.5239503E-03
  0.2011767      5.5238395E-03
  0.2016239      5.5263969E-03
  0.2024788      5.5358089E-03
  0.2033922      5.5524022E-03
  0.2037704      5.5612363E-03
  0.2052838      5.6079458E-03
  0.2056439      5.6217001E-03
  0.2064808      5.6574945E-03
  0.2076972      5.7188612E-03
  0.2084275      5.7608541E-03
  0.2089611      5.7938965E-03
  0.2100299      5.8658626E-03
  0.2106052      5.9076799E-03
  0.2112079      5.9536910E-03
  0.2121270      6.0280403E-03
  0.2129737      6.1007477E-03
  0.2133932      6.1381948E-03
  0.2143958      6.2312307E-03
  0.2155447      6.3435510E-03
  0.2159936      6.3889385E-03
  0.2172212      6.5169046E-03
  0.2176667      6.5646134E-03
  0.2188380      6.6928007E-03
  0.2195470      6.7720725E-03
  0.2201985      6.8458510E-03
  0.2206140      6.8932939E-03
  0.2215626      7.0025753E-03
  0.2221192      7.0671700E-03
  0.2233624      7.2122067E-03
  0.2243576      7.3285522E-03
  0.2251280      7.4184365E-03
  0.2254931      7.4609150E-03
  0.2261079      7.5321775E-03
  0.2273903      7.6793488E-03
  0.2281698      7.7675320E-03
  0.2291819      7.8801839E-03
  0.2294538      7.9100439E-03
  0.2306119      8.0350591E-03
  0.2315084      8.1291515E-03
  0.2322633      8.2063684E-03
  0.2331290      8.2924459E-03
  0.2337939      8.3566392E-03
  0.2346810      8.4395502E-03
  0.2353692      8.5015874E-03
  0.2361196      8.5668573E-03
  0.2370667      8.6455569E-03
  0.2378993      8.7112095E-03
  0.2386881      8.7702433E-03
  0.2391652      8.8044209E-03
  0.2397567      8.8451663E-03
  0.2409862      8.9239525E-03
  0.2411313      8.9327162E-03
  0.2420716      8.9867348E-03
  0.2429784      9.0342090E-03
  0.2442830      9.0944637E-03
  0.2449137      9.1201402E-03
  0.2455310      9.1430899E-03
  0.2466902      9.1803316E-03
  0.2474229      9.1999229E-03
  0.2482813      9.2189880E-03
  0.2483986      9.2212707E-03
  0.2492857      9.2359995E-03
  0.2506381      9.2499433E-03
  0.2514572      9.2534516E-03
  0.2522208      9.2533948E-03
  0.2523237      9.2531424E-03
  0.2537845      9.2434511E-03
  0.2546389      9.2325415E-03
  0.2552908      9.2216749E-03
  0.2562385      9.2020119E-03
  0.2563182      9.2001501E-03
  0.2578128      9.1595082E-03
  0.2581071      9.1502368E-03
  0.2590543      9.1176210E-03
  0.2597386      9.0914890E-03
  0.2606637      9.0528317E-03
  0.2617502      9.0026874E-03
  0.2625659      8.9617977E-03
  0.2630954      8.9337975E-03
  0.2641443      8.8751074E-03
  0.2649893      8.8247908E-03
  0.2655640      8.7890774E-03
  0.2659283      8.7658362E-03
  0.2672583      8.6771157E-03
  0.2679088      8.6316075E-03
  0.2688632      8.5624531E-03
  0.2693756      8.5241953E-03
  0.2698494      8.4881382E-03
  0.2712699      8.3763534E-03
  0.2718164      8.3319312E-03
  0.2724685      8.2779713E-03
  0.2735707      8.1844814E-03
  0.2744002      8.1123607E-03
  0.2751926      8.0421390E-03
  0.2758487      7.9830810E-03
  0.2765324      7.9206917E-03
  0.2772317      7.8560449E-03
  0.2782779      7.7578709E-03
  0.2792913      7.6612369E-03
  0.2795240      7.6388572E-03
  0.2806261      7.5319144E-03
  0.2816768      7.4286796E-03
  0.2819842      7.3982580E-03
  0.2832901      7.2680768E-03
  0.2840827      7.1883984E-03
  0.2845604      7.1401540E-03
  0.2856764      7.0269308E-03
  0.2864420      6.9488846E-03
  0.2872348      6.8677980E-03
  0.2874245      6.8483688E-03
  0.2881434      6.7746411E-03
  0.2894626      6.6390540E-03
  0.2904523      6.5372037E-03
  0.2911526      6.4651356E-03
  0.2920412      6.3737333E-03
  0.2925073      6.3258354E-03
  0.2932492      6.2496704E-03
  0.2941830      6.1540036E-03
  0.2946077      6.1105778E-03
  0.2954511      6.0245385E-03
  0.2966062      5.9071775E-03
  0.2976162      5.8050985E-03
  0.2983466      5.7316315E-03
  0.2989060      5.6755794E-03
  0.2993882      5.6274212E-03
  0.3005062      5.5163698E-03
  0.3015563      5.4128971E-03
  0.3018577      5.3833583E-03
  0.3031158      5.2608382E-03
  0.3039747      5.1779570E-03
  0.3040880      5.1670778E-03
  0.3054130      5.0406670E-03
  0.3059222      4.9925288E-03
  0.3067074      4.9187830E-03
  0.3079546      4.8029218E-03
  0.3084125      4.7607827E-03
  0.3089206      4.7142901E-03
  0.3096635      4.6467888E-03
  0.3110739      4.5202933E-03
  0.3112673      4.5031244E-03
  0.3127031      4.3769376E-03
  0.3134509      4.3121469E-03
  0.3135488      4.3037096E-03
  0.3146609      4.2086891E-03
  0.3153525      4.1503259E-03
  0.3166331      4.0437561E-03
  0.3169082      4.0211156E-03
  0.3177175      3.9550471E-03
  0.3185973      3.8841236E-03
  0.3195568      3.8078472E-03
  0.3205429      3.7306263E-03
  0.3209901      3.6959937E-03
  0.3218450      3.6304854E-03
  0.3227584      3.5614753E-03
  0.3231366      3.5331994E-03
  0.3246500      3.4218202E-03
  0.3250101      3.3957313E-03
  0.3258470      3.3357136E-03
  0.3270634      3.2500071E-03
  0.3277937      3.1994134E-03
  0.3283273      3.1628553E-03
  0.3293962      3.0906680E-03
  0.3299715      3.0523802E-03
  0.3305741      3.0127019E-03
  0.3314932      2.9530204E-03
  0.3323399      2.8989259E-03
  0.3327594      2.8724337E-03
  0.3337620      2.8099695E-03
  0.3349109      2.7398204E-03
  0.3353598      2.7128258E-03
  0.3365874      2.6401861E-03
  0.3370329      2.6142471E-03
  0.3382042      2.5471165E-03
  0.3389132      2.5072268E-03
  0.3395647      2.4710607E-03
  0.3399802      2.4482401E-03
  0.3409289      2.3968359E-03
  0.3414854      2.3671286E-03
  0.3427286      2.3019684E-03
  0.3437238      2.2509806E-03
  0.3444942      2.2122192E-03
  0.3448594      2.1940598E-03
  0.3454742      2.1637927E-03
  0.3467565      2.1018903E-03
  0.3475360      2.0650618E-03
  0.3485481      2.0181334E-03
  0.3488200      2.0056972E-03
  0.3499781      1.9535150E-03
  0.3508745      1.9139968E-03
  0.3516295      1.8812963E-03
  0.3524953      1.8444440E-03
  0.3531601      1.8166053E-03
  0.3540472      1.7800763E-03
  0.3547354      1.7522185E-03
  0.3554858      1.7223132E-03
  0.3564329      1.6852630E-03
  0.3572656      1.6533165E-03
  0.3580543      1.6235901E-03
  0.3585314      1.6058588E-03
  0.3591229      1.5841315E-03
  0.3603523      1.5398742E-03
  0.3604975      1.5347274E-03
  0.3614378      1.5017919E-03
  0.3623446      1.4706779E-03
  0.3636492      1.4270060E-03
  0.3642799      1.4063509E-03
  0.3648972      1.3864125E-03
  0.3660564      1.3497174E-03
  0.3667891      1.3270114E-03
  0.3676475      1.3008894E-03
  0.3677649      1.2973571E-03
  0.3686519      1.2709638E-03
  0.3700043      1.2317356E-03
  0.3708234      1.2085584E-03
  0.3715871      1.1873391E-03
  0.3716899      1.1845090E-03
  0.3731507      1.1450339E-03
  0.3740050      1.1225544E-03
  0.3746570      1.1056958E-03
  0.3756047      1.0816369E-03
  0.3756844      1.0796378E-03
  0.3771790      1.0428207E-03
  0.3774733      1.0357198E-03
  0.3784205      1.0131928E-03
  0.3791048      9.9722284E-04
  0.3800299      9.7603485E-04
  0.3811164      9.5172774E-04
  0.3819320      9.3388010E-04
  0.3824617      9.2247158E-04
  0.3835105      9.0029160E-04
  0.3843555      8.8281505E-04
  0.3849302      8.7112427E-04
  0.3852944      8.6379616E-04
  0.3866245      8.3756243E-04
  0.3872750      8.2502695E-04
  0.3882294      8.0698106E-04
  0.3887418      7.9745735E-04
  0.3892156      7.8875257E-04
  0.3906361      7.6323200E-04
  0.3911826      7.5363752E-04
  0.3918347      7.4235193E-04
  0.3929370      7.2366471E-04
  0.3937664      7.0992013E-04
  0.3945589      6.9703790E-04
  0.3952149      6.8655453E-04
  0.3958986      6.7580066E-04
  0.3965980      6.6497963E-04
  0.3976441      6.4912275E-04
  0.3986575      6.3413242E-04
  0.3988902      6.3074165E-04
  0.3999923      6.1492994E-04
  0.4010430      6.0023624E-04
  0.4013504      5.9600553E-04
  0.4026563      5.7837472E-04
  0.4034489      5.6793750E-04
  0.4039266      5.6174013E-04
  0.4050426      5.4753543E-04
  0.4058082      5.3800567E-04
  0.4066011      5.2831671E-04
  0.4067907      5.2602612E-04
  0.4075096      5.1743689E-04
  0.4088287      5.0205184E-04
  0.4098186      4.9082004E-04
  0.4105188      4.8303205E-04
  0.4114074      4.7333361E-04
  0.4118735      4.6832790E-04
  0.4126154      4.6047315E-04
  0.4135492      4.5078158E-04
  0.4139739      4.4644444E-04
  0.4148173      4.3795991E-04
  0.4159724      4.2661111E-04
  0.4169824      4.1693964E-04
  0.4177128      4.1008930E-04
  0.4182722      4.0492194E-04
  0.4187544      4.0052197E-04
  0.4198724      3.9051281E-04
  0.4209225      3.8134956E-04
  0.4212238      3.7876208E-04
  0.4224820      3.6815624E-04
  0.4233409      3.6109399E-04
  0.4234542      3.6017346E-04
  0.4247793      3.4958572E-04
  0.4252884      3.4560511E-04
  0.4260737      3.3955838E-04
  0.4273208      3.3018284E-04
  0.4277787      3.2680936E-04
  0.4282868      3.2310880E-04
  0.4290297      3.1777663E-04
  0.4304401      3.0790718E-04
  0.4306335      3.0657978E-04
  0.4320692      2.9690861E-04
  0.4328171      2.9199917E-04
  0.4329150      2.9136284E-04
  0.4340270      2.8423723E-04
  0.4347186      2.7989876E-04
  0.4359993      2.7204904E-04
  0.4362744      2.7039289E-04
  0.4370837      2.6558401E-04
  0.4379635      2.6045830E-04
  0.4389230      2.5498803E-04
  0.4399091      2.4949262E-04
  0.4403564      2.4704158E-04
  0.4412112      2.4242798E-04
  0.4421246      2.3759874E-04
  0.4425028      2.3562943E-04
  0.4440162      2.2792019E-04
  0.4443763      2.2612579E-04
  0.4452132      2.2201292E-04
  0.4464296      2.1617612E-04
  0.4471599      2.1275035E-04
  0.4476935      2.1028385E-04
  0.4487623      2.0543490E-04
  0.4493376      2.0287413E-04
  0.4499403      2.0022836E-04
  0.4508593      1.9626373E-04
  0.4517061      1.9268510E-04
  0.4521256      1.9093794E-04
  0.4531282      1.8683074E-04
  0.4542771      1.8223950E-04
  0.4547260      1.8047843E-04
  0.4559536      1.7575524E-04
  0.4563991      1.7407384E-04
  0.4575705      1.6973470E-04
  0.4582794      1.6716470E-04
  0.4589309      1.6483963E-04
  0.4593464      1.6337521E-04
  0.4602951      1.6008300E-04
  0.4608516      1.5818472E-04
  0.4620948      1.5403080E-04
  0.4630900      1.5078993E-04
  0.4638604      1.4833154E-04
  0.4642255      1.4718127E-04
  0.4648404      1.4526605E-04
  0.4661227      1.4135707E-04
  0.4669022      1.3903614E-04
  0.4679143      1.3608362E-04
  0.4681862      1.3530190E-04
  0.4693443      1.3202619E-04
  0.4702407      1.2954905E-04
  0.4709957      1.2750180E-04
  0.4718614      1.2519679E-04
  0.4725263      1.2345699E-04
  0.4734134      1.2117605E-04
  0.4741015      1.1943799E-04
  0.4748520      1.1757309E-04
  0.4757991      1.1526424E-04
  0.4766318      1.1327462E-04
  0.4774205      1.1142410E-04
  0.4778976      1.1032062E-04
  0.4784891      1.0896875E-04
  0.4797185      1.0621588E-04
  0.4798637      1.0589579E-04
  0.4808041      1.0384763E-04
  0.4817108      1.0191304E-04
  0.4830154      9.9197496E-05
  0.4836461      9.7913042E-05
  0.4842634      9.6673088E-05
  0.4854226      9.4390256E-05
  0.4861553      9.2977309E-05
  0.4870137      9.1351154E-05
  0.4871310      9.1131362E-05
  0.4880181      8.9487417E-05
  0.4893705      8.7042659E-05
  0.4901896      8.5597188E-05
  0.4909533      8.4272870E-05
  0.4910561      8.4096195E-05
  0.4925169      8.1630082E-05
  0.4933713      8.0224192E-05
  0.4940232      7.9169076E-05
  0.4949709      7.7661876E-05
  0.4950506      7.7536577E-05
  0.4965452      7.5226737E-05
  0.4968395      7.4780750E-05
  0.4977867      7.3364754E-05
  0.4984710      7.2359828E-05
  0.4993961      7.1025082E-05
  0.5004826      6.9491434E-05
  0.5012982      6.8363821E-05
  0.5018279      6.7642293E-05
  0.5028768      6.6237619E-05
  0.5037217      6.5129148E-05
  0.5042964      6.4386702E-05
  0.5046607      6.3920888E-05
  0.5059907      6.2251020E-05
  0.5066413      6.1451559E-05
  0.5075956      6.0299022E-05
  0.5081080      5.9689934E-05
  0.5085818      5.9132599E-05
  0.5100023      5.7495632E-05
  0.5105488      5.6878951E-05
  0.5112009      5.6152625E-05
  0.5123032      5.4947752E-05
  0.5131326      5.4059688E-05
  0.5139251      5.3225838E-05
  0.5145811      5.2546155E-05
  0.5152648      5.1847859E-05
  0.5159642      5.1144059E-05
  0.5170103      5.0110601E-05
  0.5180237      4.9131260E-05
  0.5182564      4.8909398E-05
  0.5193585      4.7873058E-05
  0.5204092      4.6907437E-05
  0.5207166      4.6628964E-05
  0.5220225      4.5465931E-05
  0.5228150      4.4775559E-05
  0.5232928      4.4364937E-05
  0.5244088      4.3421827E-05
  0.5251743      4.2787477E-05
  0.5259673      4.2141142E-05
  0.5261569      4.1988143E-05
  0.5268758      4.1413728E-05
  0.5281950      4.0381849E-05
  0.5291848      3.9626095E-05
  0.5298850      3.9100796E-05
  0.5307736      3.8445149E-05
  0.5312397      3.8106085E-05
  0.5319816      3.7573100E-05
  0.5329154      3.6913847E-05
  0.5333401      3.6618232E-05
  0.5341834      3.6038837E-05
  0.5353386      3.5261524E-05
  0.5363486      3.4596917E-05
  0.5370790      3.4124918E-05
  0.5376384      3.3768174E-05
  0.5381206      3.3463915E-05
  0.5392386      3.2770076E-05
  0.5402887      3.2132710E-05
  0.5405900      3.1952350E-05
  0.5418481      3.1211242E-05
  0.5427071      3.0716081E-05
  0.5428205      3.0651441E-05
  0.5441455      2.9906210E-05
  0.5446546      2.9625195E-05
  0.5454399      2.9197425E-05
  0.5466870      2.8531957E-05
  0.5471449      2.8291834E-05
  0.5476530      2.8028006E-05
  0.5483959      2.7647069E-05
  0.5498064      2.6939457E-05
  0.5499997      2.6844022E-05
  0.5514355      2.6146859E-05
  0.5521833      2.5791654E-05
  0.5522812      2.5745532E-05
  0.5533932      2.5228155E-05
  0.5540848      2.4912193E-05
  0.5553655      2.4338531E-05
  0.5556406      2.4217195E-05
  0.5564499      2.3864148E-05
  0.5573298      2.3486753E-05
  0.5582892      2.3082703E-05
  0.5592753      2.2675411E-05
  0.5597225      2.2493294E-05
  0.5605774      2.2149716E-05
  0.5614908      2.1788948E-05
  0.5618690      2.1641497E-05
  0.5633824      2.1062351E-05
  0.5637425      2.0927080E-05
  0.5645794      2.0616400E-05
  0.5657958      2.0173880E-05
  0.5665261      1.9913256E-05
  0.5670598      1.9725163E-05
  0.5681285      1.9354336E-05
  0.5687038      1.9157920E-05
  0.5693064      1.8954546E-05
  0.5702255      1.8648960E-05
  0.5710723      1.8372250E-05
  0.5714918      1.8236822E-05
  0.5724944      1.7917668E-05
  0.5736433      1.7559491E-05
  0.5740923      1.7421700E-05
  0.5753198      1.7051012E-05
  0.5757653      1.6918644E-05
  0.5769367      1.6576027E-05
  0.5776456      1.6372391E-05
  0.5782971      1.6187701E-05
  0.5787126      1.6071144E-05
  0.5796613      1.5808448E-05
  0.5802178      1.5656553E-05
  0.5814611      1.5323056E-05
  0.5824562      1.5061774E-05
  0.5832266      1.4862922E-05
  0.5835917      1.4769685E-05
  0.5842065      1.4614163E-05
  0.5854889      1.4295586E-05
  0.5862684      1.4105704E-05
  0.5872805      1.3863341E-05
  0.5875524      1.3799016E-05
  0.5887105      1.3528745E-05
  0.5896069      1.3323569E-05
  0.5903619      1.3153468E-05
  0.5912276      1.2961368E-05
  0.5918925      1.2815951E-05
  0.5927796      1.2624745E-05
  0.5934678      1.2478612E-05
  0.5942182      1.2321389E-05
  0.5951653      1.2126107E-05
  0.5959980      1.1957257E-05
  0.5967867      1.1799729E-05
  0.5972638      1.1705573E-05
  0.5978553      1.1589975E-05
  0.5990847      1.1353775E-05
  0.5992299      1.1326239E-05
  0.6001703      1.1149679E-05
  0.6010770      1.0982322E-05
  0.6023816      1.0746419E-05
  0.6030123      1.0634421E-05
  0.6036296      1.0526045E-05
  0.6047888      1.0325847E-05
  0.6055215      1.0201486E-05
  0.6063799      1.0057924E-05
  0.6064972      1.0038482E-05
  0.6073843      9.8928012E-06
  0.6087367      9.6752246E-06
  0.6095558      9.5460464E-06
  0.6103194      9.4273437E-06
  0.6104223      9.4114794E-06
  0.6118831      9.1893880E-06
  0.6127375      9.0622179E-06
  0.6133894      8.9665018E-06
  0.6143371      8.8293555E-06
  0.6144168      8.8179322E-06
  0.6159114      8.6067057E-06
  0.6162057      8.5657812E-06
  0.6171529      8.4355397E-06
  0.6178373      8.3428176E-06
  0.6187623      8.2192864E-06
  0.6198488      8.0768004E-06
  0.6206645      7.9716547E-06
  0.6211941      7.9042011E-06
  0.6222430      7.7724872E-06
  0.6230879      7.6681717E-06
  0.6236626      7.5981116E-06
  0.6240269      7.5540761E-06
  0.6253569      7.3957071E-06
  0.6260075      7.3195997E-06
  0.6269618      7.2095431E-06
  0.6274742      7.1512181E-06
  0.6279480      7.0977512E-06
  0.6293684      6.9401312E-06
  0.6299150      6.8805307E-06
  0.6305671      6.8101722E-06
  0.6316693      6.6930702E-06
  0.6324989      6.6064349E-06
  0.6332913      6.5248414E-06
  0.6339473      6.4581513E-06
  0.6346310      6.3894545E-06
  0.6353303      6.3200409E-06
  0.6363766      6.2177655E-06
  0.6373899      6.1204746E-06
  0.6376226      6.0983771E-06
  0.6387247      5.9949134E-06
  0.6397754      5.8981200E-06
  0.6400828      5.8701289E-06
  0.6413887      5.7528878E-06
  0.6421813      5.6830113E-06
  0.6426591      5.6413473E-06
  0.6437750      5.5453766E-06
  0.6445405      5.4806010E-06
  0.6453335      5.4143966E-06
  0.6455231      5.3986969E-06
  0.6462420      5.3396520E-06
  0.6475612      5.2331734E-06
  0.6485509      5.1548532E-06
  0.6492512      5.1002394E-06
  0.6501398      5.0318704E-06
  0.6506059      4.9964260E-06
  0.6513478      4.9405794E-06
  0.6522816      4.8712818E-06
  0.6527063      4.8401293E-06
  0.6535497      4.7789272E-06
  0.6547048      4.6965120E-06
  0.6557148      4.6257596E-06
  0.6564452      4.5753454E-06
  0.6570046      4.5371517E-06
  0.6574868      4.5045158E-06
  0.6586049      4.4298613E-06
  0.6596550      4.3610116E-06
  0.6599563      4.3414761E-06
  0.6612144      4.2609836E-06
  0.6620734      4.2069901E-06
  0.6621866      4.1999306E-06
  0.6635116      4.1183052E-06
  0.6640208      4.0874170E-06
  0.6648061      4.0402920E-06
  0.6660532      3.9666993E-06
  0.6665111      3.9400634E-06
  0.6670192      3.9107413E-06
  0.6677621      3.8683111E-06
  0.6691725      3.7891771E-06
  0.6693659      3.7784712E-06
  0.6708016      3.7000391E-06
  0.6715495      3.6599172E-06
  0.6716474      3.6547015E-06
  0.6727594      3.5960409E-06
  0.6734510      3.5600951E-06
  0.6747317      3.4946011E-06
  0.6750069      3.4807067E-06
  0.6758161      3.4402076E-06
  0.6766959      3.3967760E-06
  0.6776555      3.3501210E-06
  0.6786415      3.3029280E-06
  0.6790888      3.2817682E-06
  0.6799436      3.2417586E-06
  0.6808570      3.1996130E-06
  0.6812351      3.1823463E-06
  0.6827486      3.1142918E-06
  0.6831087      3.0983429E-06
  0.6839455      3.0616341E-06
  0.6851620      3.0091501E-06
  0.6858923      2.9781309E-06
  0.6864259      2.9556929E-06
  0.6874947      2.9113301E-06
  0.6880701      2.8877619E-06
  0.6886726      2.8633092E-06
  0.6895918      2.8264622E-06
  0.6904384      2.7929927E-06
  0.6908581      2.7765732E-06
  0.6918606      2.7377848E-06
  0.6930096      2.6940834E-06
  0.6934584      2.6772254E-06
  0.6946860      2.6317330E-06
  0.6951315      2.6154387E-06
  0.6963028      2.5731463E-06
  0.6970118      2.5479246E-06
  0.6976634      2.5249940E-06
  0.6980788      2.5104951E-06
  0.6990274      2.4777401E-06
  0.6995840      2.4587478E-06
  0.7008272      2.4169196E-06
  0.7018225      2.3840175E-06
  0.7025928      2.3589012E-06
  0.7029580      2.3470991E-06
  0.7035728      2.3273815E-06
  0.7048551      2.2868574E-06
  0.7056346      2.2626168E-06
  0.7066467      2.2315751E-06
  0.7069185      2.2233205E-06
  0.7080767      2.1885401E-06
  0.7089732      2.1620447E-06
  0.7097281      2.1400135E-06
  0.7105938      2.1150645E-06
  0.7112587      2.0961274E-06
  0.7121458      2.0711611E-06
  0.7128339      2.0520265E-06
  0.7135844      2.0313880E-06
  0.7145315      2.0056812E-06
  0.7153642      1.9833840E-06
  0.7161529      1.9625236E-06
  0.7166300      1.9500280E-06
  0.7172215      1.9346587E-06
  0.7184510      1.9031562E-06
  0.7185962      1.8994749E-06
  0.7195364      1.8758277E-06
  0.7204432      1.8533399E-06
  0.7217479      1.8215235E-06
  0.7223785      1.8063690E-06
  0.7229958      1.7916728E-06
  0.7241549      1.7644435E-06
  0.7248877      1.7474731E-06
  0.7257462      1.7278303E-06
  0.7258634      1.7251668E-06
  0.7267505      1.7051671E-06
  0.7281029      1.6751825E-06
  0.7289219      1.6573174E-06
  0.7296856      1.6408545E-06
  0.7297885      1.6386506E-06
  0.7312493      1.6077263E-06
  0.7321036      1.5899481E-06
  0.7327556      1.5765339E-06
  0.7337033      1.5572629E-06
  0.7337831      1.5556531E-06
  0.7352776      1.5258427E-06
  0.7355719      1.5200495E-06
  0.7365191      1.5015747E-06
  0.7372035      1.4883858E-06
  0.7381285      1.4707690E-06
  0.7392150      1.4503803E-06
  0.7400306      1.4352877E-06
  0.7405603      1.4255828E-06
  0.7416092      1.4065845E-06
  0.7424541      1.3914914E-06
  0.7430288      1.3813307E-06
  0.7433931      1.3749344E-06
  0.7447231      1.3518659E-06
  0.7453737      1.3407446E-06
  0.7463280      1.3246187E-06
  0.7468404      1.3160529E-06
  0.7473142      1.3081868E-06
  0.7487347      1.2849284E-06
  0.7492812      1.2761053E-06
  0.7499334      1.2656687E-06
  0.7510356      1.2482501E-06
  0.7518651      1.2353228E-06
  0.7526575      1.2231169E-06
  0.7533135      1.2131151E-06
  0.7539972      1.2027916E-06
  0.7546965      1.1923362E-06
  0.7557427      1.1768896E-06
  0.7567561      1.1621451E-06
  0.7569888      1.1587896E-06
  0.7580910      1.1430456E-06
  0.7591416      1.1282655E-06
  0.7594490      1.1239820E-06
  0.7607549      1.1059944E-06
  0.7615475      1.0952378E-06
  0.7620253      1.0888115E-06
  0.7631412      1.0739705E-06
  0.7639067      1.0639237E-06
  0.7646997      1.0536299E-06
  0.7648894      1.0511851E-06
  0.7656082      1.0419770E-06
  0.7669274      1.0253184E-06
  0.7679172      1.0130203E-06
  0.7686174      1.0044221E-06
  0.7695060      9.9363115E-07
  0.7699721      9.8802502E-07
  0.7707140      9.7917518E-07
  0.7716478      9.6816495E-07
  0.7720725      9.6320491E-07
  0.7729159      9.5344109E-07
  0.7740710      9.4025205E-07
  0.7750810      9.2889144E-07
  0.7758114      9.2077448E-07
  0.7763707      9.1461374E-07
  0.7768530      9.0933946E-07
  0.7779710      8.9724665E-07
  0.7790211      8.8605663E-07
  0.7793225      8.8287493E-07
  0.7805806      8.6973415E-07
  0.7814395      8.6089062E-07
  0.7815528      8.5973267E-07
  0.7828779      8.4631409E-07
  0.7833870      8.4122217E-07
  0.7841722      8.3343815E-07
  0.7854195      8.2124450E-07
  0.7858773      8.1681975E-07
  0.7863854      8.1194167E-07
  0.7871283      8.0486922E-07
  0.7885387      7.9163630E-07
  0.7887321      7.8984164E-07
  0.7901679      7.7666186E-07
  0.7909157      7.6989761E-07
  0.7910136      7.6901711E-07
  0.7921256      7.5909657E-07
  0.7928172      7.5300119E-07
  0.7940979      7.4186238E-07
  0.7943730      7.3949371E-07
  0.7951823      7.3257871E-07
